 original name of this file: test_point_angle.drv          
      1.143   0.209844        17   0.000     :Vmin dV Npts FWHM-CORRK
    0.000   0.000       : Additional codes PAR1 and PAR2
  TEST_POINT_ANGLE.KLS                                                                               
   24   0     1   0             : spectral model code, FLAGH2P, NCONT, FLAGC
 test_point_angle.xsc           : Dust x-section file
  200   1   6           : number of layers, paths and gases
    1                                    : identifier for gas 1
      0   0                              : isotope ID and process parameter
    2                                    : identifier for gas 2
      0   0                              : isotope ID and process parameter
    5                                    : identifier for gas 3
      0   0                              : isotope ID and process parameter
    6                                    : identifier for gas 4
      0   0                              : isotope ID and process parameter
   40                                    : identifier for gas 5
      0   0                              : isotope ID and process parameter
   39                                    : identifier for gas 6
      0   0                              : isotope ID and process parameter
format of layer data
 layer baseH  delH   baseP      baseT   totam       pressure    temp   doppler
        absorber amounts and partial pressures
        continuum points if any
  1    0.00    8.67 0.19739E+02 2294.230 0.53493E+26 0.19266E+02 2293.138  0.0000
         0.53493E+22 0.19266E-02 0.53493E+22 0.19266E-02 0.53493E+22 0.19266E-02
 0.53493E+22 0.19266E-02 0.72724E+25 0.26192E+01 0.46199E+26 0.16639E+02
         0.00000E+00
  2    8.67    8.67 0.18785E+02 2292.027 0.50932E+26 0.18335E+02 2290.987  0.0000
         0.50932E+22 0.18335E-02 0.50932E+22 0.18335E-02 0.50932E+22 0.18335E-02
 0.50932E+22 0.18335E-02 0.69242E+25 0.24926E+01 0.43987E+26 0.15835E+02
         0.00000E+00
  3   17.34    8.67 0.17878E+02 2289.931 0.48532E+26 0.17449E+02 2288.939  0.0000
         0.48532E+22 0.17449E-02 0.48532E+22 0.17449E-02 0.48532E+22 0.17449E-02
 0.48532E+22 0.17449E-02 0.65979E+25 0.23722E+01 0.41914E+26 0.15070E+02
         0.00000E+00
  4   26.01    8.66 0.17014E+02 2287.932 0.46192E+26 0.16606E+02 2286.990  0.0000
         0.46192E+22 0.16606E-02 0.46192E+22 0.16606E-02 0.46192E+22 0.16606E-02
 0.46192E+22 0.16606E-02 0.62798E+25 0.22577E+01 0.39894E+26 0.14342E+02
         0.00000E+00
  5   34.68    8.65 0.16192E+02 2286.032 0.43914E+26 0.15804E+02 2285.137  0.0000
         0.43914E+22 0.15804E-02 0.43914E+22 0.15804E-02 0.43914E+22 0.15804E-02
 0.43914E+22 0.15804E-02 0.59701E+25 0.21486E+01 0.37926E+26 0.13649E+02
         0.00000E+00
  6   43.32    8.65 0.15410E+02 2284.226 0.41848E+26 0.15040E+02 2283.371  0.0000
         0.41848E+22 0.15040E-02 0.41848E+22 0.15040E-02 0.41848E+22 0.15040E-02
 0.41848E+22 0.15040E-02 0.56892E+25 0.20447E+01 0.36142E+26 0.12990E+02
         0.00000E+00
  7   51.98    8.64 0.14665E+02 2282.505 0.39814E+26 0.14313E+02 2281.691  0.0000
         0.39814E+22 0.14313E-02 0.39814E+22 0.14313E-02 0.39814E+22 0.14313E-02
 0.39814E+22 0.14313E-02 0.54127E+25 0.19459E+01 0.34386E+26 0.12362E+02
         0.00000E+00
  8   60.62    8.65 0.13957E+02 2280.867 0.37925E+26 0.13622E+02 2280.092  0.0000
         0.37925E+22 0.13622E-02 0.37925E+22 0.13622E-02 0.37925E+22 0.13622E-02
 0.37925E+22 0.13622E-02 0.51559E+25 0.18519E+01 0.32754E+26 0.11765E+02
         0.00000E+00
  9   69.27    8.63 0.13283E+02 2279.308 0.36067E+26 0.12964E+02 2278.572  0.0000
         0.36067E+22 0.12964E-02 0.36067E+22 0.12964E-02 0.36067E+22 0.12964E-02
 0.36067E+22 0.12964E-02 0.49032E+25 0.17625E+01 0.31149E+26 0.11196E+02
         0.00000E+00
 10   77.90    8.64 0.12641E+02 2277.826 0.34363E+26 0.12338E+02 2277.124  0.0000
         0.34363E+22 0.12338E-02 0.34363E+22 0.12338E-02 0.34363E+22 0.12338E-02
 0.34363E+22 0.12338E-02 0.46716E+25 0.16773E+01 0.29677E+26 0.10655E+02
         0.00000E+00
 11   86.54    8.62 0.12030E+02 2276.413 0.32675E+26 0.11741E+02 2274.521  0.0000
         0.32675E+22 0.11741E-02 0.32675E+22 0.11741E-02 0.32675E+22 0.11741E-02
 0.32675E+22 0.11741E-02 0.44421E+25 0.15962E+01 0.28219E+26 0.10140E+02
         0.00000E+00
 12   95.16    8.61 0.11449E+02 2272.471 0.31140E+26 0.11174E+02 2269.473  0.0000
         0.31140E+22 0.11174E-02 0.31140E+22 0.11174E-02 0.31140E+22 0.11174E-02
 0.31140E+22 0.11174E-02 0.42334E+25 0.15191E+01 0.26894E+26 0.96503E+01
         0.00000E+00
 13  103.78    8.60 0.10896E+02 2266.309 0.29650E+26 0.10634E+02 2263.323  0.0000
         0.29650E+22 0.10634E-02 0.29650E+22 0.10634E-02 0.29650E+22 0.10634E-02
 0.29650E+22 0.10634E-02 0.40309E+25 0.14457E+01 0.25607E+26 0.91841E+01
         0.00000E+00
 14  112.37    8.56 0.10369E+02 2260.310 0.28189E+26 0.10120E+02 2257.469  0.0000
         0.28189E+22 0.10120E-02 0.28189E+22 0.10120E-02 0.28189E+22 0.10120E-02
 0.28189E+22 0.10120E-02 0.38322E+25 0.13758E+01 0.24345E+26 0.87402E+01
         0.00000E+00
 15  120.94    8.55 0.98685E+01 2254.606 0.26841E+26 0.96312E+01 2251.904  0.0000
         0.26841E+22 0.96312E-03 0.26841E+22 0.96312E-03 0.26841E+22 0.96312E-03
 0.26841E+22 0.96312E-03 0.36490E+25 0.13094E+01 0.23181E+26 0.83180E+01
         0.00000E+00
 16  129.48    8.53 0.93918E+01 2249.177 0.25557E+26 0.91659E+01 2246.605  0.0000
         0.25557E+22 0.91659E-03 0.25557E+22 0.91659E-03 0.25557E+22 0.91659E-03
 0.25557E+22 0.91659E-03 0.34745E+25 0.12461E+01 0.22072E+26 0.79161E+01
         0.00000E+00
 17  138.02    8.51 0.89380E+01 2244.010 0.24327E+26 0.87230E+01 2241.561  0.0000
         0.24326E+22 0.87230E-03 0.24326E+22 0.87230E-03 0.24326E+22 0.87230E-03
 0.24326E+22 0.87230E-03 0.33072E+25 0.11859E+01 0.21010E+26 0.75336E+01
         0.00000E+00
 18  146.53    8.50 0.85062E+01 2239.092 0.23156E+26 0.83015E+01 2236.760  0.0000
         0.23156E+22 0.83015E-03 0.23156E+22 0.83015E-03 0.23156E+22 0.83015E-03
 0.23156E+22 0.83015E-03 0.31480E+25 0.11286E+01 0.19998E+26 0.71696E+01
         0.00000E+00
 19  155.03    8.48 0.80953E+01 2234.412 0.22045E+26 0.79005E+01 2232.193  0.0000
         0.22045E+22 0.79005E-03 0.22045E+22 0.79005E-03 0.22045E+22 0.79005E-03
 0.22045E+22 0.79005E-03 0.29970E+25 0.10741E+01 0.19039E+26 0.68233E+01
         0.00000E+00
 20  163.51    8.47 0.77042E+01 2229.958 0.20980E+26 0.75189E+01 2227.848  0.0000
         0.20980E+22 0.75189E-03 0.20980E+22 0.75189E-03 0.20980E+22 0.75189E-03
 0.20980E+22 0.75189E-03 0.28522E+25 0.10222E+01 0.18119E+26 0.64937E+01
         0.00000E+00
 21  171.98    8.45 0.73320E+01 2225.719 0.19970E+26 0.71555E+01 2223.543  0.0000
         0.19970E+22 0.71555E-03 0.19970E+22 0.71555E-03 0.19970E+22 0.71555E-03
 0.19970E+22 0.71555E-03 0.27150E+25 0.97279E+00 0.17247E+26 0.61799E+01
         0.00000E+00
 22  180.43    8.43 0.69778E+01 2221.312 0.19008E+26 0.68097E+01 2216.301  0.0000
         0.19008E+22 0.68097E-03 0.19008E+22 0.68097E-03 0.19008E+22 0.68097E-03
 0.19008E+22 0.68097E-03 0.25841E+25 0.92577E+00 0.16416E+26 0.58812E+01
         0.00000E+00
 23  188.86    8.39 0.66406E+01 2210.548 0.18099E+26 0.64807E+01 2205.063  0.0000
         0.18099E+22 0.64807E-03 0.18099E+22 0.64807E-03 0.18099E+22 0.64807E-03
 0.18099E+22 0.64807E-03 0.24606E+25 0.88105E+00 0.15631E+26 0.55970E+01
         0.00000E+00
 24  197.24    8.35 0.63198E+01 2199.546 0.17224E+26 0.61676E+01 2194.326  0.0000
         0.17224E+22 0.61676E-03 0.17224E+22 0.61676E-03 0.17224E+22 0.61676E-03
 0.17224E+22 0.61676E-03 0.23416E+25 0.83848E+00 0.14875E+26 0.53266E+01
         0.00000E+00
 25  205.59    8.31 0.60145E+01 2189.078 0.16399E+26 0.58696E+01 2184.109  0.0000
         0.16399E+22 0.58696E-03 0.16399E+22 0.58696E-03 0.16399E+22 0.58696E-03
 0.16399E+22 0.58696E-03 0.22295E+25 0.79797E+00 0.14163E+26 0.50693E+01
         0.00000E+00
 26  213.90    8.27 0.57239E+01 2179.113 0.15607E+26 0.55860E+01 2174.385  0.0000
         0.15607E+22 0.55860E-03 0.15607E+22 0.55860E-03 0.15607E+22 0.55860E-03
 0.15607E+22 0.55860E-03 0.21218E+25 0.75942E+00 0.13479E+26 0.48244E+01
         0.00000E+00
 27  222.18    8.24 0.54474E+01 2169.632 0.14861E+26 0.53160E+01 2165.128  0.0000
         0.14861E+22 0.53160E-03 0.14861E+22 0.53160E-03 0.14861E+22 0.53160E-03
 0.14861E+22 0.53160E-03 0.20203E+25 0.72272E+00 0.12835E+26 0.45912E+01
         0.00000E+00
 28  230.42    8.21 0.51842E+01 2160.607 0.14144E+26 0.50592E+01 2156.320  0.0000
         0.14144E+22 0.50592E-03 0.14144E+22 0.50592E-03 0.14144E+22 0.50592E-03
 0.14144E+22 0.50592E-03 0.19229E+25 0.68780E+00 0.12215E+26 0.43694E+01
         0.00000E+00
 29  238.63    8.18 0.49338E+01 2152.019 0.13465E+26 0.48148E+01 2147.938  0.0000
         0.13465E+22 0.48148E-03 0.13465E+22 0.48148E-03 0.13465E+22 0.48148E-03
 0.13465E+22 0.48148E-03 0.18306E+25 0.65457E+00 0.11629E+26 0.41583E+01
         0.00000E+00
 30  246.81    8.15 0.46954E+01 2143.844 0.12812E+26 0.45822E+01 2139.963  0.0000
         0.12812E+22 0.45822E-03 0.12812E+22 0.45822E-03 0.12812E+22 0.45822E-03
 0.12812E+22 0.45822E-03 0.17418E+25 0.62295E+00 0.11065E+26 0.39574E+01
         0.00000E+00
 31  254.96    8.13 0.44686E+01 2136.068 0.12200E+26 0.43608E+01 2132.374  0.0000
         0.12200E+22 0.43608E-03 0.12200E+22 0.43608E-03 0.12200E+22 0.43608E-03
 0.12200E+22 0.43608E-03 0.16586E+25 0.59285E+00 0.10536E+26 0.37662E+01
         0.00000E+00
 32  263.09    8.09 0.42527E+01 2128.665 0.11608E+26 0.41501E+01 2123.396  0.0000
         0.11608E+22 0.41501E-03 0.11608E+22 0.41501E-03 0.11608E+22 0.41501E-03
 0.11608E+22 0.41501E-03 0.15782E+25 0.56420E+00 0.10026E+26 0.35842E+01
         0.00000E+00
 33  271.18    8.04 0.40472E+01 2117.441 0.11053E+26 0.39496E+01 2110.500  0.0000
         0.11053E+22 0.39496E-03 0.11053E+22 0.39496E-03 0.11053E+22 0.39496E-03
 0.11053E+22 0.39496E-03 0.15027E+25 0.53694E+00 0.95461E+25 0.34110E+01
         0.00000E+00
 34  279.22    7.99 0.38517E+01 2103.055 0.10525E+26 0.37588E+01 2095.938  0.0000
         0.10525E+22 0.37588E-03 0.10525E+22 0.37588E-03 0.10525E+22 0.37588E-03
 0.10525E+22 0.37588E-03 0.14309E+25 0.51100E+00 0.90901E+25 0.32462E+01
         0.00000E+00
 35  287.22    7.94 0.36656E+01 2088.805 0.10014E+26 0.35771E+01 2082.029  0.0000
         0.10014E+22 0.35771E-03 0.10014E+22 0.35771E-03 0.10014E+22 0.35771E-03
 0.10014E+22 0.35771E-03 0.13614E+25 0.48631E+00 0.86484E+25 0.30894E+01
         0.00000E+00
 36  295.15    7.89 0.34885E+01 2075.251 0.95320E+25 0.34043E+01 2068.800  0.0000
         0.95320E+21 0.34043E-03 0.95320E+21 0.34043E-03 0.95320E+21 0.34043E-03
 0.95320E+21 0.34043E-03 0.12959E+25 0.46281E+00 0.82323E+25 0.29401E+01
         0.00000E+00
 37  303.04    7.85 0.33200E+01 2062.350 0.90764E+25 0.32398E+01 2056.209  0.0000
         0.90764E+21 0.32398E-03 0.90764E+21 0.32398E-03 0.90764E+21 0.32398E-03
 0.90764E+21 0.32398E-03 0.12339E+25 0.44045E+00 0.78388E+25 0.27980E+01
         0.00000E+00
 38  310.89    7.80 0.31596E+01 2050.070 0.86389E+25 0.30833E+01 2044.231  0.0000
         0.86389E+21 0.30833E-03 0.86389E+21 0.30833E-03 0.86389E+21 0.30833E-03
 0.86389E+21 0.30833E-03 0.11745E+25 0.41918E+00 0.74610E+25 0.26629E+01
         0.00000E+00
 39  318.69    7.76 0.30070E+01 2038.385 0.82230E+25 0.29344E+01 2032.831  0.0000
         0.82230E+21 0.29344E-03 0.82230E+21 0.29344E-03 0.82230E+21 0.29344E-03
 0.82230E+21 0.29344E-03 0.11179E+25 0.39893E+00 0.71018E+25 0.25343E+01
         0.00000E+00
 40  326.45    7.72 0.28617E+01 2027.264 0.78263E+25 0.27926E+01 2021.979  0.0000
         0.78263E+21 0.27926E-03 0.78263E+21 0.27926E-03 0.78263E+21 0.27926E-03
 0.78263E+21 0.27926E-03 0.10640E+25 0.37966E+00 0.67592E+25 0.24119E+01
         0.00000E+00
 41  334.17    7.68 0.27234E+01 2016.682 0.74502E+25 0.26577E+01 2011.651  0.0000
         0.74502E+21 0.26577E-03 0.74502E+21 0.26577E-03 0.74502E+21 0.26577E-03
 0.74502E+21 0.26577E-03 0.10129E+25 0.36132E+00 0.64344E+25 0.22953E+01
         0.00000E+00
 42  341.85    7.64 0.25919E+01 2006.610 0.70894E+25 0.25293E+01 2001.557  0.0000
         0.70894E+21 0.25293E-03 0.70894E+21 0.25293E-03 0.70894E+21 0.25293E-03
 0.70894E+21 0.25293E-03 0.96380E+24 0.34385E+00 0.61228E+25 0.21844E+01
         0.00000E+00
 43  349.49    7.60 0.24666E+01 1996.365 0.67485E+25 0.24070E+01 1989.262  0.0000
         0.67485E+21 0.24070E-03 0.67485E+21 0.24070E-03 0.67485E+21 0.24070E-03
 0.67485E+21 0.24070E-03 0.91745E+24 0.32723E+00 0.58283E+25 0.20788E+01
         0.00000E+00
 44  357.08    7.54 0.23475E+01 1980.993 0.64280E+25 0.22907E+01 1972.956  0.0000
         0.64280E+21 0.22907E-03 0.64280E+21 0.22907E-03 0.64280E+21 0.22907E-03
 0.64280E+21 0.22907E-03 0.87389E+24 0.31143E+00 0.55516E+25 0.19784E+01
         0.00000E+00
 45  364.63    7.48 0.22341E+01 1964.927 0.61157E+25 0.21801E+01 1957.286  0.0000
         0.61157E+21 0.21801E-03 0.61157E+21 0.21801E-03 0.61157E+21 0.21801E-03
 0.61157E+21 0.21801E-03 0.83142E+24 0.29638E+00 0.52818E+25 0.18828E+01
         0.00000E+00
 46  372.10    7.42 0.21261E+01 1949.645 0.58209E+25 0.20748E+01 1942.375  0.0000
         0.58209E+21 0.20748E-03 0.58209E+21 0.20748E-03 0.58209E+21 0.20748E-03
 0.58209E+21 0.20748E-03 0.79135E+24 0.28207E+00 0.50272E+25 0.17919E+01
         0.00000E+00
 47  379.53    7.37 0.20234E+01 1935.103 0.55424E+25 0.19745E+01 1928.178  0.0000
         0.55424E+21 0.19745E-03 0.55424E+21 0.19745E-03 0.55424E+21 0.19745E-03
 0.55424E+21 0.19745E-03 0.75349E+24 0.26843E+00 0.47867E+25 0.17053E+01
         0.00000E+00
 48  386.90    7.32 0.19257E+01 1921.260 0.52750E+25 0.18791E+01 1914.667  0.0000
         0.52750E+21 0.18791E-03 0.52750E+21 0.18791E-03 0.52750E+21 0.18791E-03
 0.52750E+21 0.18791E-03 0.71714E+24 0.25546E+00 0.45557E+25 0.16229E+01
         0.00000E+00
 49  394.22    7.27 0.18326E+01 1908.086 0.50218E+25 0.17883E+01 1901.810  0.0000
         0.50218E+21 0.17883E-03 0.50218E+21 0.17883E-03 0.50218E+21 0.17883E-03
 0.50218E+21 0.17883E-03 0.68271E+24 0.24312E+00 0.43370E+25 0.15445E+01
         0.00000E+00
 50  401.49    7.23 0.17441E+01 1895.547 0.47815E+25 0.17019E+01 1889.576  0.0000
         0.47815E+21 0.17019E-03 0.47815E+21 0.17019E-03 0.47815E+21 0.17019E-03
 0.47815E+21 0.17019E-03 0.65004E+24 0.23138E+00 0.41295E+25 0.14699E+01
         0.00000E+00
 51  408.72    7.18 0.16598E+01 1883.610 0.45498E+25 0.16197E+01 1877.929  0.0000
         0.45498E+21 0.16197E-03 0.45498E+21 0.16197E-03 0.45498E+21 0.16197E-03
 0.45498E+21 0.16197E-03 0.61854E+24 0.22020E+00 0.39294E+25 0.13989E+01
         0.00000E+00
 52  415.91    7.14 0.15796E+01 1872.255 0.43314E+25 0.15414E+01 1866.842  0.0000
         0.43314E+21 0.15414E-03 0.43314E+21 0.15414E-03 0.43314E+21 0.15414E-03
 0.43314E+21 0.15414E-03 0.58886E+24 0.20956E+00 0.37409E+25 0.13312E+01
         0.00000E+00
 53  423.05    7.10 0.15033E+01 1861.447 0.41193E+25 0.14669E+01 1855.209  0.0000
         0.41193E+21 0.14669E-03 0.41193E+21 0.14669E-03 0.41193E+21 0.14669E-03
 0.41193E+21 0.14669E-03 0.56001E+24 0.19943E+00 0.35576E+25 0.12669E+01
         0.00000E+00
 54  430.15    7.05 0.14307E+01 1848.209 0.39245E+25 0.13961E+01 1840.771  0.0000
         0.39245E+21 0.13961E-03 0.39245E+21 0.13961E-03 0.39245E+21 0.13961E-03
 0.39245E+21 0.13961E-03 0.53353E+24 0.18980E+00 0.33894E+25 0.12057E+01
         0.00000E+00
 55  437.19    6.99 0.13616E+01 1832.904 0.37365E+25 0.13286E+01 1825.312  0.0000
         0.37365E+21 0.13286E-03 0.37365E+21 0.13286E-03 0.37365E+21 0.13286E-03
 0.37365E+21 0.13286E-03 0.50798E+24 0.18063E+00 0.32271E+25 0.11475E+01
         0.00000E+00
 56  444.19    6.93 0.12958E+01 1817.744 0.35533E+25 0.12644E+01 1810.522  0.0000
         0.35533E+21 0.12644E-03 0.35533E+21 0.12644E-03 0.35533E+21 0.12644E-03
 0.35533E+21 0.12644E-03 0.48307E+24 0.17190E+00 0.30688E+25 0.10920E+01
         0.00000E+00
 57  451.12    6.88 0.12332E+01 1803.328 0.33850E+25 0.12033E+01 1796.450  0.0000
         0.33850E+21 0.12033E-03 0.33850E+21 0.12033E-03 0.33850E+21 0.12033E-03
 0.33850E+21 0.12033E-03 0.46019E+24 0.16359E+00 0.29235E+25 0.10393E+01
         0.00000E+00
 58  458.00    6.83 0.11736E+01 1789.599 0.32206E+25 0.11452E+01 1783.057  0.0000
         0.32206E+21 0.11452E-03 0.32206E+21 0.11452E-03 0.32206E+21 0.11452E-03
 0.32206E+21 0.11452E-03 0.43785E+24 0.15569E+00 0.27815E+25 0.98907E+00
         0.00000E+00
 59  464.83    6.78 0.11169E+01 1776.538 0.30634E+25 0.10899E+01 1770.319  0.0000
         0.30634E+21 0.10899E-03 0.30634E+21 0.10899E-03 0.30634E+21 0.10899E-03
 0.30634E+21 0.10899E-03 0.41647E+24 0.14817E+00 0.26457E+25 0.94130E+00
         0.00000E+00
 60  471.61    6.74 0.10630E+01 1764.117 0.29195E+25 0.10372E+01 1758.193  0.0000
         0.29195E+21 0.10372E-03 0.29195E+21 0.10372E-03 0.29195E+21 0.10372E-03
 0.29195E+21 0.10372E-03 0.39690E+24 0.14101E+00 0.25214E+25 0.89582E+00
         0.00000E+00
 61  478.35    6.70 0.10116E+01 1752.282 0.27791E+25 0.98712E+00 1746.637  0.0000
         0.27791E+21 0.98712E-04 0.27791E+21 0.98712E-04 0.27791E+21 0.98712E-04
 0.27791E+21 0.98712E-04 0.37782E+24 0.13420E+00 0.24002E+25 0.85253E+00
         0.00000E+00
 62  485.04    6.65 0.96274E+00 1741.019 0.26439E+25 0.93942E+00 1735.647  0.0000
         0.26439E+21 0.93942E-04 0.26439E+21 0.93942E-04 0.26439E+21 0.93942E-04
 0.26439E+21 0.93942E-04 0.35944E+24 0.12771E+00 0.22834E+25 0.81133E+00
         0.00000E+00
 63  491.70    6.61 0.91622E+00 1730.304 0.25167E+25 0.89404E+00 1725.017  0.0000
         0.25167E+21 0.89404E-04 0.25167E+21 0.89404E-04 0.25167E+21 0.89404E-04
 0.25167E+21 0.89404E-04 0.34214E+24 0.12154E+00 0.21735E+25 0.77213E+00
         0.00000E+00
 64  498.31    6.57 0.87196E+00 1719.596 0.23951E+25 0.85083E+00 1713.473  0.0000
         0.23951E+21 0.85083E-04 0.23951E+21 0.85083E-04 0.23951E+21 0.85083E-04
 0.23951E+21 0.85083E-04 0.32561E+24 0.11567E+00 0.20685E+25 0.73482E+00
         0.00000E+00
 65  504.88    6.52 0.82983E+00 1706.540 0.22805E+25 0.80973E+00 1699.712  0.0000
         0.22805E+21 0.80973E-04 0.22805E+21 0.80973E-04 0.22805E+21 0.80973E-04
 0.22805E+21 0.80973E-04 0.31003E+24 0.11008E+00 0.19695E+25 0.69933E+00
         0.00000E+00
 66  511.40    6.47 0.78974E+00 1692.921 0.21709E+25 0.77063E+00 1686.427  0.0000
         0.21709E+21 0.77063E-04 0.21709E+21 0.77063E-04 0.21709E+21 0.77063E-04
 0.21709E+21 0.77063E-04 0.29513E+24 0.10477E+00 0.18749E+25 0.66556E+00
         0.00000E+00
 67  517.87    6.42 0.75159E+00 1679.958 0.20660E+25 0.73341E+00 1673.780  0.0000
         0.20660E+21 0.73341E-04 0.20660E+21 0.73341E-04 0.20660E+21 0.73341E-04
 0.20660E+21 0.73341E-04 0.28087E+24 0.99706E-01 0.17843E+25 0.63341E+00
         0.00000E+00
 68  524.29    6.38 0.71528E+00 1667.623 0.19663E+25 0.69797E+00 1661.744  0.0000
         0.19663E+21 0.69797E-04 0.19663E+21 0.69797E-04 0.19663E+21 0.69797E-04
 0.19663E+21 0.69797E-04 0.26732E+24 0.94889E-01 0.16982E+25 0.60280E+00
         0.00000E+00
 69  530.67    6.33 0.68072E+00 1655.884 0.18720E+25 0.66425E+00 1650.288  0.0000
         0.18720E+21 0.66425E-04 0.18720E+21 0.66425E-04 0.18720E+21 0.66425E-04
 0.18720E+21 0.66425E-04 0.25450E+24 0.90305E-01 0.16168E+25 0.57368E+00
         0.00000E+00
 70  537.00    6.29 0.64784E+00 1644.711 0.17817E+25 0.63215E+00 1639.382  0.0000
         0.17817E+21 0.63215E-04 0.17817E+21 0.63215E-04 0.17817E+21 0.63215E-04
 0.17817E+21 0.63215E-04 0.24222E+24 0.85941E-01 0.15388E+25 0.54596E+00
         0.00000E+00
 71  543.30    6.25 0.61654E+00 1634.080 0.16959E+25 0.60161E+00 1629.008  0.0000
         0.16959E+21 0.60161E-04 0.16959E+21 0.60161E-04 0.16959E+21 0.60161E-04
 0.16959E+21 0.60161E-04 0.23056E+24 0.81789E-01 0.14647E+25 0.51958E+00
         0.00000E+00
 72  549.55    6.22 0.58675E+00 1623.961 0.16142E+25 0.57255E+00 1619.136  0.0000
         0.16142E+21 0.57255E-04 0.16142E+21 0.57255E-04 0.16142E+21 0.57255E-04
 0.16142E+21 0.57255E-04 0.21945E+24 0.77838E-01 0.13941E+25 0.49448E+00
